#  E (eV)   dos(E)     Int dos(E) EFermi =    6.852 eV
  -2.000  0.2242E+02  0.2242E+01
  -1.900  0.1015E+02  0.3256E+01
  -1.800  0.1768E+01  0.3433E+01
  -1.700  0.1163E+00  0.3445E+01
  -1.600  0.2792E-02  0.3445E+01
  -1.500  0.2374E-04  0.3445E+01
  -1.400  0.7014E-07  0.3445E+01
  -1.300  0.7116E-10  0.3445E+01
  -1.200  0.2465E-13  0.3445E+01
  -1.100  0.2908E-17  0.3445E+01
  -1.000  0.1166E-21  0.3445E+01
  -0.900  0.1588E-26  0.3445E+01
  -0.800  0.7342E-32  0.3445E+01
  -0.700  0.1153E-37  0.3445E+01
  -0.600  0.6158E-44  0.3445E+01
  -0.500  0.4147E-40  0.3445E+01
  -0.400  0.4490E-34  0.3445E+01
  -0.300  0.1657E-28  0.3445E+01
  -0.200  0.2088E-23  0.3445E+01
  -0.100  0.8985E-19  0.3445E+01
   0.000  0.1324E-14  0.3445E+01
   0.100  0.6687E-11  0.3445E+01
   0.200  0.1162E-07  0.3445E+01
   0.300  0.6978E-05  0.3445E+01
   0.400  0.1454E-02  0.3445E+01
   0.500  0.1061E+00  0.3456E+01
   0.600  0.2741E+01  0.3730E+01
   0.700  0.2566E+02  0.6296E+01
   0.800  0.9103E+02  0.1540E+02
   0.900  0.1357E+03  0.2897E+02
   1.000  0.1145E+03  0.4042E+02
   1.100  0.1161E+03  0.5203E+02
   1.200  0.1574E+03  0.6778E+02
   1.300  0.1838E+03  0.8615E+02
   1.400  0.2235E+03  0.1085E+03
   1.500  0.2741E+03  0.1359E+03
   1.600  0.2421E+03  0.1601E+03
   1.700  0.1621E+03  0.1763E+03
   1.800  0.1158E+03  0.1879E+03
   1.900  0.9834E+02  0.1978E+03
   2.000  0.9076E+02  0.2068E+03
   2.100  0.1204E+03  0.2189E+03
   2.200  0.1971E+03  0.2386E+03
   2.300  0.2864E+03  0.2672E+03
   2.400  0.3250E+03  0.2997E+03
   2.500  0.2521E+03  0.3249E+03
   2.600  0.1560E+03  0.3405E+03
   2.700  0.1001E+03  0.3505E+03
   2.800  0.6047E+02  0.3566E+03
   2.900  0.4976E+02  0.3616E+03
   3.000  0.5990E+02  0.3675E+03
   3.100  0.7089E+02  0.3746E+03
   3.200  0.6207E+02  0.3808E+03
   3.300  0.3567E+02  0.3844E+03
   3.400  0.1886E+02  0.3863E+03
   3.500  0.4361E+02  0.3907E+03
   3.600  0.9279E+02  0.3999E+03
   3.700  0.1050E+03  0.4104E+03
   3.800  0.6917E+02  0.4174E+03
   3.900  0.3335E+02  0.4207E+03
   4.000  0.1904E+02  0.4226E+03
   4.100  0.1963E+02  0.4246E+03
   4.200  0.2157E+02  0.4267E+03
   4.300  0.3562E+02  0.4303E+03
   4.400  0.5259E+02  0.4355E+03
   4.500  0.5505E+02  0.4410E+03
   4.600  0.3529E+02  0.4446E+03
   4.700  0.2126E+02  0.4467E+03
   4.800  0.4182E+02  0.4509E+03
   4.900  0.6548E+02  0.4574E+03
   5.000  0.5593E+02  0.4630E+03
   5.100  0.3591E+02  0.4666E+03
   5.200  0.4570E+02  0.4712E+03
   5.300  0.8475E+02  0.4797E+03
   5.400  0.1200E+03  0.4917E+03
   5.500  0.1217E+03  0.5038E+03
   5.600  0.8973E+02  0.5128E+03
   5.700  0.6128E+02  0.5189E+03
   5.800  0.5322E+02  0.5243E+03
   5.900  0.5219E+02  0.5295E+03
   6.000  0.6118E+02  0.5356E+03
   6.100  0.7085E+02  0.5427E+03
   6.200  0.5660E+02  0.5483E+03
   6.300  0.4818E+02  0.5532E+03
   6.400  0.4462E+02  0.5576E+03
   6.500  0.3191E+02  0.5608E+03
   6.600  0.2909E+02  0.5637E+03
   6.700  0.2711E+02  0.5664E+03
   6.800  0.2040E+02  0.5685E+03
   6.900  0.8361E+01  0.5693E+03
   7.000  0.1329E+01  0.5694E+03
   7.100  0.7388E-01  0.5694E+03
   7.200  0.5091E-02  0.5694E+03
   7.300  0.1276E+00  0.5695E+03
   7.400  0.1498E+01  0.5696E+03
   7.500  0.5971E+01  0.5702E+03
   7.600  0.8079E+01  0.5710E+03
   7.700  0.3711E+01  0.5714E+03
   7.800  0.5786E+00  0.5714E+03
   7.900  0.3062E-01  0.5714E+03
   8.000  0.5501E-03  0.5714E+03
   8.100  0.3355E-05  0.5714E+03
   8.200  0.6946E-08  0.5714E+03
   8.300  0.4881E-11  0.5714E+03
   8.400  0.1164E-14  0.5714E+03
   8.500  0.9430E-19  0.5714E+03
   8.600  0.2592E-23  0.5714E+03
   8.700  0.2419E-28  0.5714E+03
   8.800  0.7662E-34  0.5714E+03
   8.900  0.1838E-32  0.5714E+03
   9.000  0.4463E-27  0.5714E+03
   9.100  0.3678E-22  0.5714E+03
   9.200  0.1029E-17  0.5714E+03
   9.300  0.9770E-14  0.5714E+03
   9.400  0.3150E-10  0.5714E+03
   9.500  0.3447E-07  0.5714E+03
   9.600  0.1280E-04  0.5714E+03
   9.700  0.1615E-02  0.5714E+03
   9.800  0.6927E-01  0.5715E+03
   9.900  0.1017E+01  0.5716E+03
  10.000  0.5263E+01  0.5721E+03
  10.100  0.1089E+02  0.5732E+03
  10.200  0.1209E+02  0.5744E+03
  10.300  0.8017E+01  0.5752E+03
  10.400  0.2385E+01  0.5754E+03
  10.500  0.2844E+00  0.5754E+03
  10.600  0.6920E+00  0.5755E+03
  10.700  0.6557E+01  0.5762E+03
  10.800  0.2336E+02  0.5785E+03
  10.900  0.3500E+02  0.5820E+03
  11.000  0.2739E+02  0.5847E+03
  11.100  0.1578E+02  0.5863E+03
  11.200  0.8414E+01  0.5872E+03
  11.300  0.2502E+01  0.5874E+03
  11.400  0.2819E+00  0.5874E+03
  11.500  0.6279E-01  0.5875E+03
  11.600  0.1333E+01  0.5876E+03
  11.700  0.1234E+02  0.5888E+03
  11.800  0.4310E+02  0.5931E+03
  11.900  0.6260E+02  0.5994E+03
  12.000  0.4670E+02  0.6041E+03
  12.100  0.2622E+02  0.6067E+03
  12.200  0.1928E+02  0.6086E+03
  12.300  0.2128E+02  0.6107E+03
  12.400  0.1695E+02  0.6124E+03
  12.500  0.8085E+01  0.6132E+03
  12.600  0.1886E+01  0.6134E+03
  12.700  0.1700E+00  0.6134E+03
  12.800  0.5377E-02  0.6134E+03
  12.900  0.5819E-04  0.6134E+03
  13.000  0.2162E-06  0.6134E+03
  13.100  0.1320E-05  0.6134E+03
  13.200  0.2932E-03  0.6134E+03
  13.300  0.2210E-01  0.6134E+03
  13.400  0.5655E+00  0.6135E+03
  13.500  0.4915E+01  0.6140E+03
  13.600  0.1460E+02  0.6155E+03
  13.700  0.1592E+02  0.6170E+03
  13.800  0.1157E+02  0.6182E+03
  13.900  0.1644E+02  0.6198E+03
  14.000  0.3228E+02  0.6231E+03
  14.100  0.5619E+02  0.6287E+03
  14.200  0.6826E+02  0.6355E+03
  14.300  0.5240E+02  0.6408E+03
  14.400  0.3368E+02  0.6441E+03
  14.500  0.2609E+02  0.6467E+03
  14.600  0.2467E+02  0.6492E+03
  14.700  0.4185E+02  0.6534E+03
  14.800  0.7425E+02  0.6608E+03
  14.900  0.7807E+02  0.6686E+03
  15.000  0.5726E+02  0.6743E+03
  15.100  0.3515E+02  0.6779E+03
  15.200  0.3611E+02  0.6815E+03
  15.300  0.4688E+02  0.6862E+03
  15.400  0.5117E+02  0.6913E+03
  15.500  0.4952E+02  0.6962E+03
  15.600  0.2602E+02  0.6988E+03
  15.700  0.5634E+01  0.6994E+03
  15.800  0.4622E+00  0.6994E+03
  15.900  0.1379E-01  0.6994E+03
  16.000  0.1459E-03  0.6994E+03
  16.100  0.5400E-06  0.6994E+03
  16.200  0.6932E-09  0.6994E+03
  16.300  0.3071E-12  0.6994E+03
  16.400  0.4679E-16  0.6994E+03
  16.500  0.2445E-20  0.6994E+03
  16.600  0.4373E-25  0.6994E+03
  16.700  0.2673E-30  0.6994E+03
  16.800  0.5573E-36  0.6994E+03
  16.900  0.3960E-42  0.6994E+03
  17.000  0.9582E-49  0.6994E+03
  17.100  0.7889E-56  0.6994E+03
  17.200  0.2209E-63  0.6994E+03
  17.300  0.2102E-71  0.6994E+03
  17.400  0.6804E-80  0.6994E+03
  17.500  0.4453E-83  0.6994E+03
  17.600  0.4453E-83  0.6994E+03
  17.700  0.4453E-83  0.6994E+03
  17.800  0.4453E-83  0.6994E+03
  17.900  0.4453E-83  0.6994E+03
  18.000  0.4453E-83  0.6994E+03
